Dark spectrum
Integration time [ms]:  70,000
Averaging Nr. [scans]: 10
Smoothing Nr. [pixels]: 0
Data measured with spectrometer [name]: 1804344U2
Wave   ;Sample   ;Dark     ;Reference;Scope
[nm]   ;[counts] ;[counts] ;[counts] 

293,333;   30,200;   30,200;    0,000
293,501;   15,800;   15,800;    0,000
293,670;   23,900;   23,900;    0,000
293,839;    1,200;    1,200;    0,000
294,008;   50,200;   50,200;    0,000
294,177;  -22,200;  -22,200;    0,000
294,345;  -11,800;  -11,800;    0,000
294,514;  -62,400;  -62,400;    0,000
294,683;   56,900;   56,900;    0,000
294,852;   13,100;   13,100;    0,000
295,020;  -35,200;  -35,200;    0,000
295,189;   -4,900;   -4,900;    0,000
295,358;   17,200;   17,200;    0,000
295,527;  -21,200;  -21,200;    0,000
295,695;   31,900;   31,900;    0,000
295,864;   46,200;   46,200;    0,000
296,033;   20,100;   20,100;    0,000
296,201;  -17,100;  -17,100;    0,000
296,370;   39,000;   39,000;    0,000
296,539;  -34,500;  -34,500;    0,000
296,708;    5,000;    5,000;    0,000
296,876;  -15,700;  -15,700;    0,000
297,045;   12,900;   12,900;    0,000
297,214;    3,100;    3,100;    0,000
297,382;   -1,300;   -1,300;    0,000
297,551;    2,500;    2,500;    0,000
297,720;   -0,500;   -0,500;    0,000
297,888;    3,800;    3,800;    0,000
298,057;   -5,500;   -5,500;    0,000
298,226;   -6,500;   -6,500;    0,000
298,394;   23,400;   23,400;    0,000
298,563;   40,200;   40,200;    0,000
298,731;   46,300;   46,300;    0,000
298,900;   -6,700;   -6,700;    0,000
299,069;   -1,800;   -1,800;    0,000
299,237;  -19,500;  -19,500;    0,000
299,406;   -1,500;   -1,500;    0,000
299,574;    9,900;    9,900;    0,000
299,743;   49,200;   49,200;    0,000
299,912;  -11,900;  -11,900;    0,000
300,080;   60,500;   60,500;    0,000
300,249;   -1,500;   -1,500;    0,000
300,417;   -8,800;   -8,800;    0,000
300,586;  -44,000;  -44,000;    0,000
300,754;    4,300;    4,300;    0,000
300,923;    6,600;    6,600;    0,000
301,091;   23,500;   23,500;    0,000
301,260;   -2,700;   -2,700;    0,000
301,428;   -1,300;   -1,300;    0,000
301,597;   -1,400;   -1,400;    0,000
301,766;   44,100;   44,100;    0,000
301,934;   22,300;   22,300;    0,000
302,103;   12,500;   12,500;    0,000
302,271;  -37,400;  -37,400;    0,000
302,439;   23,500;   23,500;    0,000
302,608;  -26,200;  -26,200;    0,000
302,776;  -31,100;  -31,100;    0,000
302,945;   14,300;   14,300;    0,000
303,113;   11,300;   11,300;    0,000
303,282;   -7,400;   -7,400;    0,000
303,450;  -44,400;  -44,400;    0,000
303,619;   13,300;   13,300;    0,000
303,787;   27,300;   27,300;    0,000
303,956;   28,600;   28,600;    0,000
304,124;   45,600;   45,600;    0,000
304,292;  -24,800;  -24,800;    0,000
304,461;   -4,300;   -4,300;    0,000
304,629;   53,300;   53,300;    0,000
304,798;   60,000;   60,000;    0,000
304,966;   27,300;   27,300;    0,000
305,134;    6,000;    6,000;    0,000
305,303;    4,600;    4,600;    0,000
305,471;   51,500;   51,500;    0,000
305,639;  -25,100;  -25,100;    0,000
305,808;  -15,400;  -15,400;    0,000
305,976;   12,200;   12,200;    0,000
306,145;   14,700;   14,700;    0,000
306,313;    5,800;    5,800;    0,000
306,481;   37,400;   37,400;    0,000
306,650;   27,100;   27,100;    0,000
306,818;   60,400;   60,400;    0,000
306,986;   -5,600;   -5,600;    0,000
307,155;   -7,000;   -7,000;    0,000
307,323;    5,900;    5,900;    0,000
307,491;   16,200;   16,200;    0,000
307,659;   -7,300;   -7,300;    0,000
307,828;   24,200;   24,200;    0,000
307,996;  -31,200;  -31,200;    0,000
308,164;  -39,200;  -39,200;    0,000
308,332;   60,800;   60,800;    0,000
308,501;   14,900;   14,900;    0,000
308,669;    4,100;    4,100;    0,000
308,837;   26,200;   26,200;    0,000
309,006;   39,100;   39,100;    0,000
309,174;  -11,900;  -11,900;    0,000
309,342;   -1,200;   -1,200;    0,000
309,510;    2,700;    2,700;    0,000
309,678;   15,200;   15,200;    0,000
309,847;   18,900;   18,900;    0,000
310,015;   11,500;   11,500;    0,000
310,183;  -22,300;  -22,300;    0,000
310,351;  -34,700;  -34,700;    0,000
310,519;   -7,900;   -7,900;    0,000
310,688;    1,500;    1,500;    0,000
310,856;   15,800;   15,800;    0,000
311,024;  -19,000;  -19,000;    0,000
311,192;   -8,700;   -8,700;    0,000
311,360;    0,200;    0,200;    0,000
311,528;   16,400;   16,400;    0,000
311,697;   -8,700;   -8,700;    0,000
311,865;    6,600;    6,600;    0,000
312,033;   25,700;   25,700;    0,000
312,201;   32,200;   32,200;    0,000
312,369;   -4,600;   -4,600;    0,000
312,537;    0,500;    0,500;    0,000
312,705;   -1,700;   -1,700;    0,000
312,873;  -13,900;  -13,900;    0,000
313,041;    1,500;    1,500;    0,000
313,210;  -10,900;  -10,900;    0,000
313,378;   36,800;   36,800;    0,000
313,546;    4,200;    4,200;    0,000
313,714;   25,500;   25,500;    0,000
313,882;   17,800;   17,800;    0,000
314,050;   -9,700;   -9,700;    0,000
314,218;    1,900;    1,900;    0,000
314,386;    6,700;    6,700;    0,000
314,554;   10,600;   10,600;    0,000
314,722;   17,000;   17,000;    0,000
314,890;   35,500;   35,500;    0,000
315,058;   -7,500;   -7,500;    0,000
315,226;   12,500;   12,500;    0,000
315,394;    1,900;    1,900;    0,000
315,562;   30,900;   30,900;    0,000
315,730;   20,600;   20,600;    0,000
315,898;    4,200;    4,200;    0,000
316,066;   36,700;   36,700;    0,000
316,234;    2,900;    2,900;    0,000
316,402;  -19,600;  -19,600;    0,000
316,570;    4,400;    4,400;    0,000
316,738;    6,900;    6,900;    0,000
316,906;   35,700;   35,700;    0,000
317,074;   15,000;   15,000;    0,000
317,242;   35,200;   35,200;    0,000
317,410;   -6,500;   -6,500;    0,000
317,578;   -7,700;   -7,700;    0,000
317,745;   -7,800;   -7,800;    0,000
317,913;   39,100;   39,100;    0,000
318,081;   36,000;   36,000;    0,000
318,249;   24,800;   24,800;    0,000
318,417;   38,600;   38,600;    0,000
318,585;    8,500;    8,500;    0,000
318,753;  -35,600;  -35,600;    0,000
318,921;  -19,600;  -19,600;    0,000
319,089;   11,100;   11,100;    0,000
319,256;    4,900;    4,900;    0,000
319,424;   -9,000;   -9,000;    0,000
319,592;   32,400;   32,400;    0,000
319,760;   -6,500;   -6,500;    0,000
319,928;   -1,800;   -1,800;    0,000
320,096;    6,700;    6,700;    0,000
320,263;  -16,200;  -16,200;    0,000
320,431;    1,900;    1,900;    0,000
320,599;   25,600;   25,600;    0,000
320,767;    4,900;    4,900;    0,000
320,935;    9,600;    9,600;    0,000
321,103;   16,300;   16,300;    0,000
321,270;   37,800;   37,800;    0,000
321,438;  -49,300;  -49,300;    0,000
321,606;   18,100;   18,100;    0,000
321,774;   -2,600;   -2,600;    0,000
321,941;  -28,700;  -28,700;    0,000
322,109;  -22,600;  -22,600;    0,000
322,277;   -5,400;   -5,400;    0,000
322,445;   -1,500;   -1,500;    0,000
322,612;   31,900;   31,900;    0,000
322,780;  -11,700;  -11,700;    0,000
322,948;    9,200;    9,200;    0,000
323,116;  -17,100;  -17,100;    0,000
323,283;    0,600;    0,600;    0,000
323,451;   24,500;   24,500;    0,000
323,619;   46,700;   46,700;    0,000
323,786;  -12,600;  -12,600;    0,000
323,954;   21,200;   21,200;    0,000
324,122;   -3,200;   -3,200;    0,000
324,289;    9,600;    9,600;    0,000
324,457;   -9,000;   -9,000;    0,000
324,625;    6,800;    6,800;    0,000
324,792;   -7,800;   -7,800;    0,000
324,960;   -2,000;   -2,000;    0,000
325,128;    9,400;    9,400;    0,000
325,295;   37,700;   37,700;    0,000
325,463;   45,900;   45,900;    0,000
325,631;   30,100;   30,100;    0,000
325,798;   17,200;   17,200;    0,000
325,966;   37,700;   37,700;    0,000
326,133;   15,100;   15,100;    0,000
326,301;   13,600;   13,600;    0,000
326,469;    3,400;    3,400;    0,000
326,636;   29,800;   29,800;    0,000
326,804;  -28,100;  -28,100;    0,000
326,971;   15,600;   15,600;    0,000
327,139;   11,000;   11,000;    0,000
327,306;   10,500;   10,500;    0,000
327,474;  -18,300;  -18,300;    0,000
327,641;   31,400;   31,400;    0,000
327,809;  -13,800;  -13,800;    0,000
327,977;    4,100;    4,100;    0,000
328,144;   -2,900;   -2,900;    0,000
328,312;   36,300;   36,300;    0,000
328,479;    2,500;    2,500;    0,000
328,647;   22,500;   22,500;    0,000
328,814;   36,100;   36,100;    0,000
328,982;    9,000;    9,000;    0,000
329,149;  -20,600;  -20,600;    0,000
329,317;   72,400;   72,400;    0,000
329,484;    1,200;    1,200;    0,000
329,652;   51,700;   51,700;    0,000
329,819;    8,300;    8,300;    0,000
329,986;   14,700;   14,700;    0,000
330,154;   27,800;   27,800;    0,000
330,321;  -12,200;  -12,200;    0,000
330,489;   15,400;   15,400;    0,000
330,656;   -0,100;   -0,100;    0,000
330,824;  -31,700;  -31,700;    0,000
330,991;   24,900;   24,900;    0,000
331,159;  -33,200;  -33,200;    0,000
331,326;   33,100;   33,100;    0,000
331,493;  -26,600;  -26,600;    0,000
331,661;   -0,100;   -0,100;    0,000
331,828;  -25,000;  -25,000;    0,000
331,995;    5,800;    5,800;    0,000
332,163;    2,500;    2,500;    0,000
332,330;   -3,100;   -3,100;    0,000
332,498;   -3,100;   -3,100;    0,000
332,665;   18,400;   18,400;    0,000
332,832;   18,800;   18,800;    0,000
333,000;   33,400;   33,400;    0,000
333,167;   13,700;   13,700;    0,000
333,334;   -2,000;   -2,000;    0,000
333,502;    2,200;    2,200;    0,000
333,669;  -14,400;  -14,400;    0,000
333,836;    9,400;    9,400;    0,000
334,004;   52,400;   52,400;    0,000
334,171;   12,200;   12,200;    0,000
334,338;   31,400;   31,400;    0,000
334,505;   -0,600;   -0,600;    0,000
334,673;    9,000;    9,000;    0,000
334,840;  -26,800;  -26,800;    0,000
335,007;   15,700;   15,700;    0,000
335,174;   -7,800;   -7,800;    0,000
335,342;   -5,800;   -5,800;    0,000
335,509;  -14,200;  -14,200;    0,000
335,676;   48,700;   48,700;    0,000
335,844;   -2,500;   -2,500;    0,000
336,011;   20,600;   20,600;    0,000
336,178;   52,800;   52,800;    0,000
336,345;   16,600;   16,600;    0,000
336,512;   37,600;   37,600;    0,000
336,680;   29,800;   29,800;    0,000
336,847;   23,200;   23,200;    0,000
337,014;   66,900;   66,900;    0,000
337,181;   73,900;   73,900;    0,000
337,348;   26,000;   26,000;    0,000
337,516;   36,300;   36,300;    0,000
337,683;    4,900;    4,900;    0,000
337,850;  -28,900;  -28,900;    0,000
338,017;   31,900;   31,900;    0,000
338,184;   11,100;   11,100;    0,000
338,351;   21,700;   21,700;    0,000
338,518;  -12,500;  -12,500;    0,000
338,686;   42,200;   42,200;    0,000
338,853;   -8,500;   -8,500;    0,000
339,020;   31,900;   31,900;    0,000
339,187;  -19,000;  -19,000;    0,000
339,354;  -24,200;  -24,200;    0,000
339,521;   31,600;   31,600;    0,000
339,688;   42,700;   42,700;    0,000
339,855;   -8,200;   -8,200;    0,000
340,022;   -0,800;   -0,800;    0,000
340,189;  -12,700;  -12,700;    0,000
340,356;    7,700;    7,700;    0,000
340,523;   53,900;   53,900;    0,000
340,691;   28,600;   28,600;    0,000
340,858;  -17,600;  -17,600;    0,000
341,025;   33,900;   33,900;    0,000
341,192;    5,300;    5,300;    0,000
341,359;   26,300;   26,300;    0,000
341,526;    6,800;    6,800;    0,000
341,693;    4,900;    4,900;    0,000
341,860;   36,700;   36,700;    0,000
342,027;   11,500;   11,500;    0,000
342,194;    4,500;    4,500;    0,000
342,361;   11,200;   11,200;    0,000
342,528;   19,900;   19,900;    0,000
342,695;   18,700;   18,700;    0,000
342,862;   21,900;   21,900;    0,000
343,029;   45,200;   45,200;    0,000
343,196;   24,200;   24,200;    0,000
343,362;   11,600;   11,600;    0,000
343,529;   37,700;   37,700;    0,000
343,696;   -3,700;   -3,700;    0,000
343,863;   37,100;   37,100;    0,000
344,030;   13,600;   13,600;    0,000
344,197;    3,800;    3,800;    0,000
344,364;   -4,000;   -4,000;    0,000
344,531;    8,800;    8,800;    0,000
344,698;   -5,500;   -5,500;    0,000
344,865;  -34,200;  -34,200;    0,000
345,032;   50,200;   50,200;    0,000
345,199;   16,200;   16,200;    0,000
345,365;  -23,500;  -23,500;    0,000
345,532;   17,700;   17,700;    0,000
345,699;   20,800;   20,800;    0,000
345,866;   31,700;   31,700;    0,000
346,033;   22,600;   22,600;    0,000
346,200;   -8,300;   -8,300;    0,000
346,366;   47,100;   47,100;    0,000
346,533;   53,400;   53,400;    0,000
346,700;   62,200;   62,200;    0,000
346,867;   -4,800;   -4,800;    0,000
347,034;   12,400;   12,400;    0,000
347,201;   14,200;   14,200;    0,000
347,367;    6,800;    6,800;    0,000
347,534;   45,200;   45,200;    0,000
347,701;   57,400;   57,400;    0,000
347,868;    6,600;    6,600;    0,000
348,034;   39,800;   39,800;    0,000
348,201;   12,700;   12,700;    0,000
348,368;   30,800;   30,800;    0,000
348,535;   40,300;   40,300;    0,000
348,701;   15,100;   15,100;    0,000
348,868;    0,000;    0,000;    0,000
349,035;   27,800;   27,800;    0,000
349,202;   13,600;   13,600;    0,000
349,368;   -0,700;   -0,700;    0,000
349,535;   16,500;   16,500;    0,000
349,702;   34,400;   34,400;    0,000
349,868;   20,200;   20,200;    0,000
350,035;   59,500;   59,500;    0,000
350,202;   25,900;   25,900;    0,000
350,369;   16,000;   16,000;    0,000
350,535;  -19,200;  -19,200;    0,000
350,702;   14,300;   14,300;    0,000
350,869;   11,900;   11,900;    0,000
351,035;   50,700;   50,700;    0,000
351,202;   65,700;   65,700;    0,000
351,368;    3,100;    3,100;    0,000
351,535;   54,900;   54,900;    0,000
351,702;   13,900;   13,900;    0,000
351,868;   29,400;   29,400;    0,000
352,035;   14,700;   14,700;    0,000
352,202;   43,000;   43,000;    0,000
352,368;    4,500;    4,500;    0,000
352,535;   20,700;   20,700;    0,000
352,701;   42,800;   42,800;    0,000
352,868;   52,000;   52,000;    0,000
353,035;  101,600;  101,600;    0,000
353,201;    9,200;    9,200;    0,000
353,368;   67,100;   67,100;    0,000
353,534;   89,600;   89,600;    0,000
353,701;   71,700;   71,700;    0,000
353,867;  -17,200;  -17,200;    0,000
354,034;   28,500;   28,500;    0,000
354,200;   54,200;   54,200;    0,000
354,367;   24,300;   24,300;    0,000
354,533;   48,400;   48,400;    0,000
354,700;   14,800;   14,800;    0,000
354,866;   24,300;   24,300;    0,000
355,033;   29,900;   29,900;    0,000
355,199;   30,300;   30,300;    0,000
355,366;   16,900;   16,900;    0,000
355,532;   22,200;   22,200;    0,000
355,699;   84,300;   84,300;    0,000
355,865;  -13,800;  -13,800;    0,000
356,032;   15,200;   15,200;    0,000
356,198;   61,100;   61,100;    0,000
356,365;   46,300;   46,300;    0,000
356,531;   49,400;   49,400;    0,000
356,698;   83,400;   83,400;    0,000
356,864;   73,900;   73,900;    0,000
357,030;   70,600;   70,600;    0,000
357,197;  124,500;  124,500;    0,000
357,363;   70,800;   70,800;    0,000
357,530;   78,000;   78,000;    0,000
357,696;  194,000;  194,000;    0,000
357,862;   28,000;   28,000;    0,000
358,029;   18,400;   18,400;    0,000
358,195;   36,800;   36,800;    0,000
358,362;   43,500;   43,500;    0,000
358,528;   45,500;   45,500;    0,000
358,694;   39,800;   39,800;    0,000
358,861;   35,000;   35,000;    0,000
359,027;   25,300;   25,300;    0,000
359,193;   22,600;   22,600;    0,000
359,360;    9,500;    9,500;    0,000
359,526;   51,200;   51,200;    0,000
359,692;   42,500;   42,500;    0,000
359,859;  -40,900;  -40,900;    0,000
360,025;    5,600;    5,600;    0,000
360,191;   34,100;   34,100;    0,000
360,357;  -22,800;  -22,800;    0,000
360,524;   33,700;   33,700;    0,000
360,690;   17,500;   17,500;    0,000
360,856;  -12,600;  -12,600;    0,000
361,023;   19,000;   19,000;    0,000
361,189;   56,100;   56,100;    0,000
361,355;   30,400;   30,400;    0,000
361,521;   29,700;   29,700;    0,000
361,688;   25,100;   25,100;    0,000
361,854;   50,700;   50,700;    0,000
362,020;   36,000;   36,000;    0,000
362,186;  -15,000;  -15,000;    0,000
362,352;   40,300;   40,300;    0,000
362,519;   10,400;   10,400;    0,000
362,685;   51,900;   51,900;    0,000
362,851;    5,300;    5,300;    0,000
363,017;   46,400;   46,400;    0,000
363,183;   38,600;   38,600;    0,000
363,350;   45,800;   45,800;    0,000
363,516;   15,100;   15,100;    0,000
363,682;   42,300;   42,300;    0,000
363,848;   31,100;   31,100;    0,000
364,014;   14,400;   14,400;    0,000
364,180;   36,400;   36,400;    0,000
364,347;   18,100;   18,100;    0,000
364,513;   -5,700;   -5,700;    0,000
364,679;    0,600;    0,600;    0,000
364,845;   44,900;   44,900;    0,000
365,011;   51,900;   51,900;    0,000
365,177;  -14,400;  -14,400;    0,000
365,343;   -1,900;   -1,900;    0,000
365,509;   16,000;   16,000;    0,000
365,675;   41,400;   41,400;    0,000
365,841;   10,800;   10,800;    0,000
366,008;   18,500;   18,500;    0,000
366,174;  -10,700;  -10,700;    0,000
366,340;    7,600;    7,600;    0,000
366,506;   16,100;   16,100;    0,000
366,672;   25,700;   25,700;    0,000
366,838;   38,600;   38,600;    0,000
367,004;   38,600;   38,600;    0,000
367,170;   25,400;   25,400;    0,000
367,336;   15,400;   15,400;    0,000
367,502;   12,400;   12,400;    0,000
367,668;   36,000;   36,000;    0,000
367,834;    7,000;    7,000;    0,000
368,000;   20,100;   20,100;    0,000
368,166;   12,200;   12,200;    0,000
368,332;   56,500;   56,500;    0,000
368,498;   32,300;   32,300;    0,000
368,664;   56,900;   56,900;    0,000
368,830;   55,300;   55,300;    0,000
368,996;   44,500;   44,500;    0,000
369,162;   11,200;   11,200;    0,000
369,328;   53,900;   53,900;    0,000
369,493;   10,000;   10,000;    0,000
369,659;   59,400;   59,400;    0,000
369,825;   48,000;   48,000;    0,000
369,991;   48,100;   48,100;    0,000
370,157;   23,700;   23,700;    0,000
370,323;   51,900;   51,900;    0,000
370,489;   40,900;   40,900;    0,000
370,655;   60,200;   60,200;    0,000
370,821;   46,600;   46,600;    0,000
370,987;   57,900;   57,900;    0,000
371,152;   64,100;   64,100;    0,000
371,318;   26,300;   26,300;    0,000
371,484;  -10,900;  -10,900;    0,000
371,650;   31,400;   31,400;    0,000
371,816;   16,900;   16,900;    0,000
371,982;   14,400;   14,400;    0,000
372,147;   25,700;   25,700;    0,000
372,313;   23,200;   23,200;    0,000
372,479;    6,300;    6,300;    0,000
372,645;   52,300;   52,300;    0,000
372,811;   -6,800;   -6,800;    0,000
372,977;   -2,500;   -2,500;    0,000
373,142;   19,600;   19,600;    0,000
373,308;   10,700;   10,700;    0,000
373,474;   48,800;   48,800;    0,000
373,640;   43,800;   43,800;    0,000
373,805;   10,800;   10,800;    0,000
373,971;   64,200;   64,200;    0,000
374,137;   32,700;   32,700;    0,000
374,303;   71,000;   71,000;    0,000
374,468;   43,600;   43,600;    0,000
374,634;   74,100;   74,100;    0,000
374,800;   37,200;   37,200;    0,000
374,966;   57,600;   57,600;    0,000
375,131;   31,100;   31,100;    0,000
375,297;   60,400;   60,400;    0,000
375,463;   50,700;   50,700;    0,000
375,628;   81,400;   81,400;    0,000
375,794;   56,200;   56,200;    0,000
375,960;   50,800;   50,800;    0,000
376,125;    3,000;    3,000;    0,000
376,291;   41,100;   41,100;    0,000
376,457;   -0,900;   -0,900;    0,000
376,622;   -0,500;   -0,500;    0,000
376,788;   31,600;   31,600;    0,000
376,954;   57,600;   57,600;    0,000
377,119;   40,800;   40,800;    0,000
377,285;    1,700;    1,700;    0,000
377,451;   29,200;   29,200;    0,000
377,616;   61,900;   61,900;    0,000
377,782;   49,600;   49,600;    0,000
